#Time (S)	Lockin (mV)	Temp (V)
37.40	0.015137	2.264404
37.92	0.018066	2.257843
38.44	0.017532	2.255211
38.97	0.017356	2.257598
39.50	0.017623	2.258153
40.03	0.016809	2.253122
40.56	0.017164	2.257043
41.08	0.016824	2.258560
41.61	0.017327	2.252974
42.14	0.017608	2.255120
42.67	0.017001	2.259484
43.20	0.017637	2.255563
43.72	0.017282	2.255822
44.25	0.017504	2.258486
44.78	0.017933	2.252678
45.31	0.017948	2.248128
45.84	0.017549	2.248831
46.36	0.017471	2.243080
46.88	0.017822	2.238884
47.40	0.017517	2.239456
47.92	0.017517	2.240067
48.44	0.017761	2.237091
48.96	0.017181	2.231560
49.48	0.017548	2.226143
50.00	0.017181	2.227287
50.52	0.016342	2.228699
51.04	0.017273	2.225723
51.56	0.017151	2.219849
52.08	0.017609	2.218704
52.60	0.017715	2.221489
53.12	0.017899	2.223511
53.64	0.017883	2.218933
54.16	0.018021	2.217293
54.68	0.017395	2.217140
55.20	0.017746	2.220192
55.72	0.017059	2.220688
56.24	0.017136	2.214699
56.76	0.016953	2.210197
57.28	0.017334	2.206879
57.80	0.017456	2.207680
58.32	0.016968	2.203712
58.84	0.017349	2.198563
59.36	0.017960	2.193375
59.88	0.016983	2.194099
60.40	0.017853	2.195015
60.92	0.017532	2.193336
61.44	0.017487	2.189064
61.96	0.017426	2.187157
62.48	0.017151	2.188950
63.00	0.017578	2.191811
63.52	0.016754	2.187653
64.04	0.017349	2.184715
64.56	0.016998	2.184639
65.08	0.016434	2.187729
65.60	0.017410	2.188148
66.12	0.017227	2.181511
66.64	0.017151	2.174644
67.16	0.017258	2.176361
67.68	0.016571	2.175827
68.20	0.017593	2.172394
68.72	0.017151	2.165108
69.24	0.017303	2.158585
69.76	0.017822	2.156944
70.28	0.017502	2.158852
70.80	0.017212	2.157555
71.32	0.017441	2.153473
71.84	0.017426	2.150955
72.36	0.017502	2.154121
72.88	0.017441	2.155533
73.40	0.017502	2.154427
73.92	0.017349	2.151527
74.44	0.018021	2.150612
74.96	0.017868	2.151604
75.48	0.017334	2.157059
76.00	0.017944	2.155609
76.52	0.017532	2.150040
77.04	0.016739	2.148094
77.56	0.017288	2.152519
78.08	0.016647	2.155418
78.60	0.016678	2.152710
79.12	0.017288	2.148476
79.64	0.016541	2.150002
80.16	0.016785	2.151604
80.68	0.016953	2.151871
81.20	0.015564	2.148895
81.72	0.016510	2.144356
82.24	0.016998	2.146034
82.76	0.016953	2.148018
83.28	0.016937	2.145805
83.80	0.016464	2.142982
84.32	0.017288	2.142067
84.84	0.016418	2.143211
85.36	0.016739	2.145882
85.88	0.017487	2.145271
86.40	0.016678	2.143021
86.92	0.017609	2.143440
87.44	0.017517	2.142982
87.96	0.016891	2.140388
88.48	0.017151	2.138710
89.00	0.017044	2.129822
89.52	0.017303	2.120399
90.04	0.017761	2.113457
90.56	0.018204	2.111320
91.08	0.017685	2.103081
91.60	0.017288	2.098579
92.12	0.017426	2.093773
92.64	0.017426	2.095070
93.16	0.017914	2.095947
93.68	0.017380	2.092667
94.20	0.016739	2.090034
94.72	0.017258	2.088318
95.24	0.016968	2.091064
95.76	0.017578	2.094383
96.28	0.016342	2.089577
96.80	0.016632	2.087708
97.32	0.016602	2.087593
97.84	0.016586	2.091179
98.36	0.016708	2.091980
98.88	0.016708	2.088318
99.40	0.016571	2.087669
99.92	0.016739	2.087402
100.44	0.017120	2.091599
100.96	0.016815	2.091103
101.48	0.016663	2.089233
102.00	0.016968	2.093658
102.52	0.016937	2.091789
103.04	0.017380	2.086487
103.56	0.017014	2.077255
104.08	0.016342	2.067795
104.60	0.017212	2.059975
105.12	0.017242	2.058029
105.64	0.016983	2.056274
106.16	0.017242	2.049637
106.68	0.017197	2.045250
107.20	0.017731	2.044067
107.72	0.017319	2.042732
108.24	0.017609	2.043800
108.76	0.017410	2.039070
109.28	0.017014	2.037315
109.80	0.017410	2.036095
110.32	0.017502	2.039604
110.84	0.017181	2.039452
111.36	0.017090	2.036209
111.88	0.017120	2.033119
112.40	0.017563	2.033386
112.92	0.016708	2.032089
113.44	0.016724	2.024078
113.96	0.016602	2.011566
114.48	0.016602	2.001877
115.00	0.016449	1.994247
115.52	0.016144	1.990128
116.04	0.016800	1.982231
116.56	0.016724	1.973534
117.08	0.016998	1.968803
117.60	0.016815	1.964836
118.12	0.016235	1.966400
118.64	0.016724	1.957054
119.16	0.016891	1.954689
119.68	0.017227	1.953163
120.20	0.016937	1.950912
120.72	0.017014	1.948051
121.24	0.017120	1.946678
121.76	0.017410	1.945190
122.28	0.016861	1.940269
122.80	0.016983	1.938858
123.32	0.017090	1.935883
123.84	0.017197	1.930580
124.36	0.017502	1.919746
124.88	0.017685	1.898308
125.40	0.017349	1.875191
125.92	0.017456	1.850853
126.44	0.017349	1.821899
126.96	0.017105	1.796341
127.48	0.017197	1.773605
128.00	0.017853	1.751595
128.52	0.016907	1.731300
129.04	0.016846	1.713982
129.56	0.016510	1.697388
130.08	0.017075	1.688843
130.60	0.017609	1.683121
131.12	0.016785	1.676750
131.64	0.016357	1.673737
132.16	0.016968	1.674576
132.68	0.017929	1.679153
133.20	0.017029	1.681061
133.72	0.017059	1.681328
134.24	0.017120	1.682701
134.76	0.017426	1.682472
135.28	0.017426	1.683617
135.80	0.017761	1.681366
136.32	0.017639	1.675034
136.84	0.017685	1.671333
137.36	0.017548	1.666260
137.88	0.017090	1.660919
138.40	0.017395	1.653099
138.92	0.017303	1.644135
139.44	0.017181	1.633949
139.96	0.017578	1.624794
140.48	0.018158	1.617775
141.00	0.017532	1.608162
141.52	0.017914	1.595688
142.04	0.018570	1.588593
142.56	0.017822	1.581955
143.08	0.018112	1.577034
143.60	0.018021	1.570244
144.12	0.017578	1.559944
144.64	0.017746	1.553574
145.16	0.017029	1.548424
145.68	0.017410	1.543694
146.20	0.017807	1.534729
146.72	0.017517	1.523476
147.24	0.017822	1.514816
147.76	0.017181	1.503792
148.28	0.016907	1.496429
148.80	0.017471	1.485176
149.32	0.017563	1.472702
149.84	0.017715	1.461182
150.36	0.017899	1.454773
150.88	0.018097	1.448669
151.40	0.017639	1.440201
151.92	0.017609	1.428566
152.44	0.017929	1.419067
152.96	0.018127	1.413918
153.48	0.017883	1.409073
154.00	0.018097	1.401749
154.52	0.017944	1.391411
155.04	0.018112	1.382828
155.56	0.018494	1.378136
156.08	0.018616	1.374817
156.60	0.018387	1.368103
157.12	0.018295	1.357651
157.64	0.018311	1.348343
158.16	0.018829	1.342278
158.68	0.018173	1.341896
159.20	0.018646	1.335373
159.72	0.017929	1.325760
160.24	0.018326	1.317940
160.76	0.018051	1.315384
161.28	0.018188	1.313248
161.80	0.018295	1.310272
162.32	0.017776	1.302490
162.84	0.017853	1.296120
163.36	0.017105	1.291962
163.88	0.017471	1.293564
164.40	0.017441	1.291504
164.92	0.017731	1.284714
165.44	0.017532	1.275787
165.96	0.018036	1.273575
166.48	0.017807	1.274071
167.00	0.017929	1.273346
167.52	0.018372	1.266670
168.04	0.018250	1.259117
168.56	0.018463	1.257210
169.08	0.017487	1.259079
169.60	0.017929	1.257629
170.12	0.018570	1.252441
170.64	0.018066	1.247520
171.16	0.018021	1.244774
171.68	0.018280	1.245041
172.20	0.018097	1.244926
172.72	0.018585	1.242142
173.24	0.018219	1.235847
173.76	0.018646	1.231804
174.28	0.018509	1.234856
174.80	0.018265	1.234474
175.32	0.018707	1.232452
175.84	0.018585	1.226501
176.36	0.019058	1.223907
176.88	0.018829	1.224442
177.40	0.019104	1.226463
177.92	0.018906	1.223373
178.44	0.018539	1.217575
178.96	0.018188	1.212959
179.48	0.018234	1.216125
180.00	0.018295	1.217499
180.52	0.018616	1.213264
181.04	0.018234	1.210785
181.56	0.018555	1.206932
182.08	0.017685	1.210251
182.60	0.018539	1.209412
183.12	0.018677	1.205177
183.64	0.018341	1.201515
184.16	0.018860	1.200218
184.68	0.018097	1.202240
185.20	0.018768	1.201706
185.72	0.018799	1.196899
186.24	0.019196	1.192741
186.76	0.018829	1.192245
187.28	0.019547	1.194382
187.80	0.018829	1.193542
188.32	0.018463	1.187782
188.84	0.019073	1.184311
189.36	0.018875	1.184959
189.88	0.018982	1.186142
190.40	0.018707	1.182823
190.92	0.018921	1.178818
191.44	0.019318	1.178551
191.96	0.019150	1.178780
192.48	0.019531	1.177597
193.00	0.019165	1.174965
193.52	0.018906	1.171036
194.04	0.018341	1.172180
194.56	0.018661	1.174202
195.08	0.019455	1.171875
195.60	0.018845	1.169624
196.12	0.018570	1.166611
196.64	0.018402	1.168900
197.16	0.018799	1.169243
197.68	0.018616	1.167564
198.20	0.018402	1.164742
198.72	0.018524	1.164093
199.24	0.018265	1.166611
199.76	0.018326	1.166916
200.28	0.018478	1.162758
200.80	0.019058	1.160698
201.32	0.018936	1.161575
201.84	0.018967	1.164551
202.36	0.019073	1.163712
202.88	0.019089	1.159363
203.40	0.019379	1.156654
203.92	0.019073	1.157608
204.44	0.019119	1.158485
204.96	0.019058	1.155586
205.48	0.019135	1.152420
206.00	0.019440	1.149673
206.52	0.019608	1.151505
207.04	0.019363	1.153412
207.56	0.019989	1.148491
208.08	0.018295	1.149025
208.60	0.019257	1.149101
209.12	0.019257	1.144333
209.64	0.019882	1.143265
210.16	0.020065	1.143494
210.68	0.019669	1.145020
211.20	0.020035	1.142807
211.72	0.019455	1.139221
212.24	0.019913	1.138306
212.76	0.019943	1.140442
213.28	0.019608	1.141586
213.80	0.019760	1.137276
214.32	0.019730	1.134262
214.84	0.019211	1.134834
215.36	0.019638	1.136856
215.88	0.018845	1.134644
216.40	0.018814	1.130981
216.92	0.019485	1.128731
217.44	0.019318	1.129951
217.96	0.019058	1.131096
218.48	0.019592	1.129456
219.00	0.019257	1.123924
219.52	0.019363	1.124268
220.04	0.019226	1.125374
220.56	0.019699	1.125526
221.08	0.020004	1.123123
221.60	0.019669	1.119308
222.12	0.019516	1.118393
222.64	0.019623	1.121101
223.16	0.019684	1.121254
223.68	0.019730	1.117477
224.20	0.019623	1.114426
224.72	0.019623	1.116829
225.24	0.020020	1.116524
225.76	0.019760	1.116524
226.28	0.019592	1.114197
226.80	0.019531	1.112595
227.32	0.020477	1.113052
227.84	0.020370	1.114120
228.36	0.020340	1.111717
228.88	0.020050	1.109047
229.40	0.020401	1.108208
229.92	0.020950	1.108475
230.45	0.019501	1.106415
230.97	0.020401	1.107063
231.49	0.020660	1.108284
232.01	0.020721	1.106453
232.53	0.020401	1.103821
233.05	0.021164	1.103859
233.57	0.020615	1.104240
234.09	0.021103	1.104469
234.61	0.020996	1.103210
235.13	0.020493	1.100693
235.65	0.020172	1.100159
236.17	0.020874	1.101570
236.69	0.020096	1.102219
237.21	0.019836	1.098251
237.73	0.020248	1.097069
238.25	0.019791	1.097031
238.77	0.019775	1.098213
239.29	0.020645	1.096878
239.81	0.020172	1.095619
240.33	0.020416	1.093559
240.85	0.021118	1.093330
241.37	0.020157	1.094017
241.89	0.021194	1.093254
242.41	0.021011	1.091843
242.93	0.021393	1.089630
243.45	0.021683	1.090813
243.97	0.020966	1.091309
244.49	0.021667	1.089897
245.01	0.020874	1.087646
245.53	0.021790	1.086540
246.05	0.021896	1.087265
246.57	0.021973	1.087379
247.09	0.021866	1.085930
247.61	0.021927	1.083641
248.13	0.022141	1.083412
248.65	0.022812	1.085091
249.17	0.022781	1.084747
249.69	0.022079	1.081352
250.21	0.022018	1.079674
250.73	0.021606	1.081238
251.25	0.022369	1.082230
251.77	0.022263	1.081390
252.29	0.021866	1.078415
252.81	0.021317	1.076698
253.33	0.021729	1.077843
253.85	0.021851	1.079178
254.37	0.021454	1.077805
254.89	0.021637	1.075172
255.41	0.021942	1.074638
255.93	0.022079	1.075439
256.45	0.023010	1.076584
256.97	0.022736	1.074181
257.49	0.022339	1.072578
258.01	0.022614	1.071548
258.53	0.023010	1.072426
259.05	0.022964	1.072731
259.57	0.023514	1.071243
260.09	0.023346	1.069527
260.61	0.023148	1.068954
261.13	0.023468	1.070442
261.65	0.023804	1.070671
262.17	0.023193	1.067963
262.69	0.023209	1.067200
263.21	0.024506	1.067123
263.73	0.024307	1.068382
264.25	0.024078	1.067734
264.77	0.024002	1.065063
265.29	0.024384	1.064034
265.81	0.024673	1.065445
266.33	0.025238	1.065369
266.85	0.024628	1.064377
267.37	0.024796	1.062355
267.89	0.025024	1.062012
268.41	0.025055	1.061935
268.93	0.021881	1.062355
269.45	0.025604	1.059570
271.03	0.024475	1.058731
271.55	0.025894	1.059265
272.07	0.026108	1.057892
272.59	0.025528	1.055946
273.11	0.022949	1.055641
274.15	0.027359	1.057434
274.67	0.023941	1.053963
275.19	0.025665	1.051598
275.71	0.027588	1.051903
276.24	0.027054	1.051064
276.76	0.027145	1.048813
277.28	0.028030	1.050072
277.80	0.027985	1.051025
278.32	0.027695	1.048088
278.84	0.028091	1.045761
279.36	0.028137	1.045380
279.88	0.027771	1.047173
280.40	0.028275	1.047287
280.92	0.027893	1.044426
281.44	0.027588	1.042633
